Humic acid																					Fulvic acid																											
L-MPD							M-MPD							H-MPD							L-MPD							M-MPD							H-MPD							C1s	Humic acid			Fulvic acid		
Binding energy (eV)	Intensity(a.u.)						Binding energy (eV)	Intensity(a.u.)						Binding energy (eV)	Intensity(a.u.)						Binding energy (eV)	Intensity(a.u.)						Binding energy (eV)	Intensity(a.u.)						Binding energy (eV)	Intensity(a.u.)							L-MPD	M-MPD	H-MPD	L-MPD	M-MPD	H-MPD
	C-C	C-O	COO	C=O	Backgnd.	Envelope		C-C	C-O	COO	C=O	Backgnd.	Envelope		C-C	C-O	COO	C=O	Backgnd.	Envelope		C-C	COO	C-O	C=O	Backgnd.	Envelope		C-C	COO	C-O	C=O	Backgnd.	Envelope		C-C	C=O	C-O	Backgnd.	Envelope		C-O	12.62	12.73	19.02	13.56	16.39	13.41
294.4	0	0	0	0	0	217.333	294.45	0	0	0	0	0	181.333	294.45	0	0	0	0	0	200.812	294.45	0	0	0	0	0	204	294.3	0	0	0	0	0	224	294.5	0	0	0	0	264		C=O	8.39	9.2	8.44	5.55	8.38	20.13
294.35	0	0	0	0	0	242.667	294.4	0	0	0	0	0	177.333	294.4	0	0	0	0	0	223.515	294.4	0	0	0	0	0	222.667	294.25	0	0	0	0	0	216	294.45	0	0	0	0	276		C=O + C-O	21.01	21.93	27.46	19.11	24.77	33.54
294.3	0	0	0	0	0	237.333	294.35	0	0	0	0	0	204	294.35	0	0	0	0	0	236.887	294.35	0	0	0	0	0	216	294.2	0	0	0	0	0	228	294.4	0	0	0	0	266.667								
294.25	0	0	0	0	0	220	294.3	0	0	0	0	0	182.667	294.3	0	0	0	0	0	222.259	294.3	0	0	0	0	0	210.667	294.15	0	0	0	0	0	193.333	294.35	0	0	0	0	252								
294.2	0	0	0	0	0	216	294.25	0	0	0	0	0	193.333	294.25	0	0	0	0	0	214.301	294.25	0	0	0	0	0	205.333	294.1	0	0	0	0	0	188	294.3	0	0	0	0	244								
294.15	0	0	0	0	0	233.333	294.2	0	0	0	0	0	209.333	294.2	0	0	0	0	0	202.344	294.2	0	0	0	0	0	209.333	294.05	0	0	0	0	0	204	294.25	0	0	0	0	268								
294.1	0	0	0	0	0	246.667	294.15	0	0	0	0	0	184	294.15	0	0	0	0	0	207.722	294.15	0	0	0	0	0	194.667	294	0	0	0	0	0	198.667	294.2	0	0	0	0	257.333								
294.05	0	0	0	0	0	225.333	294.1	0	0	0	0	0	177.333	294.1	0	0	0	0	0	235.768	294.1	0	0	0	0	0	185.333	293.95	0	0	0	0	0	193.333	294.15	0	0	0	0	276								
294	0	0	0	0	0	232	294.05	0	0	0	0	0	188	294.05	0	0	0	0	0	231.817	294.05	0	0	0	0	0	205.333	293.9	0	0	0	0	0	178.667	294.1	0	0	0	0	246.667								
293.95	0	0	0	0	0	226.667	294	0	0	0	0	0	204	294	0	0	0	0	0	226.534	294	0	0	0	0	0	213.333	293.85	0	0	0	0	0	178.667	294.05	0	0	0	0	252								
293.9	0	0	0	0	0	232	293.95	0	0	0	0	0	184	293.95	0	0	0	0	0	227.92	293.95	0	0	0	0	0	194.667	293.8	0	0	0	0	0	202.667	294	0	0	0	0	250.667								
293.85	0	0	0	0	0	250.667	293.9	0	0	0	0	0	181.333	293.9	0	0	0	0	0	219.975	293.9	0	0	0	0	0	216	293.75	0	0	0	0	0	216	293.95	0	0	0	0	248								
293.8	0	0	0	0	0	230.667	293.85	0	0	0	0	0	186.667	293.85	0	0	0	0	0	232.033	293.85	0	0	0	0	0	218.667	293.7	0	0	0	0	0	224	293.9	0	0	0	0	256								
293.75	0	0	0	0	0	210.667	293.8	0	0	0	0	0	172	293.8	0	0	0	0	0	222.759	293.8	0	0	0	0	0	200	293.65	0	0	0	0	0	202.667	293.85	0	0	0	0	248								
293.7	0	0	0	0	0	218.667	293.75	0	0	0	0	0	184	293.75	0	0	0	0	0	209.488	293.75	0	0	0	0	0	200	293.6	0	0	0	0	0	186.667	293.8	0	0	0	0	260								
293.65	0	0	0	0	0	236	293.7	0	0	0	0	0	174.667	293.7	0	0	0	0	0	212.219	293.7	0	0	0	0	0	206.667	293.55	0	0	0	0	0	190.667	293.75	0	0	0	0	254.667								
293.6	0	0	0	0	0	228	293.65	0	0	0	0	0	182.667	293.65	0	0	0	0	0	214.953	293.65	0	0	0	0	0	205.333	293.5	0	0	0	0	0	192	293.7	0	0	0	0	228								
293.55	0	0	0	0	0	241.333	293.6	0	0	0	0	0	201.333	293.6	0	0	0	0	0	213.69	293.6	0	0	0	0	0	208	293.45	0	0	0	0	0	200	293.65	0	0	0	0	241.333								
293.5	0	0	0	0	0	236	293.55	0	0	0	0	0	194.667	293.55	0	0	0	0	0	208.43	293.55	0	0	0	0	0	212	293.4	0	0	0	0	0	208	293.6	0	0	0	0	252								
293.45	0	0	0	0	0	197.334	293.5	0	0	0	0	0	176	293.5	0	0	0	0	0	201.839	293.5	0	0	0	0	0	224	293.35	0	0	0	0	0	209.333	293.55	0	0	0	0	240								
293.4	0	0	0	0	0	230.667	293.45	0	0	0	0	0	190.667	293.45	0	0	0	0	0	215.252	293.45	0	0	0	0	0	226.667	293.3	0	0	0	0	0	198.667	293.5	0	0	0	0	245.333								
293.35	0	0	0	0	0	242.667	293.4	0	0	0	0	0	216	293.4	0	0	0	0	0	244.668	293.4	0	0	0	0	0	216	293.25	0	0	0	0	0	188	293.45	0	0	0	0	269.333								
293.3	0	0	0	0	0	249.334	293.35	0	0	0	0	0	201.333	293.35	0	0	0	0	0	219.42	293.35	0	0	0	0	0	218.667	293.2	0	0	0	0	0	189.333	293.4	0	0	0	0	257.333								
293.25	0	0	0	0	0	222.667	293.3	0	0	0	0	0	184	293.3	0	0	0	0	0	243.51	293.3	0	0	0	0	0	193.333	293.15	0	0	0	0	0	190.667	293.35	0	0	0	0	258.667								
293.2	0	0	0	0	0	252.001	293.25	0	0	0	0	0	174.667	293.25	0	0	0	0	0	239.603	293.25	0	0	0	0	0	197.333	293.1	0	0	0	0	0	212	293.3	0	0	0	0	262.667								
293.15	0	0	0	0	0	241.335	293.2	0	0	0	0	0	176	293.2	0	0	0	0	0	201.034	293.2	0	0	0	0	0	186.667	293.05	0	0	0	0	0	206.667	293.25	0	0	0	0	256								
293.1	0	0	0	0	0	261.335	293.15	0	0	0	0	0	172.001	293.15	0	0	0	0	0	207.802	293.15	0	0	0	0	0	220	293	0	0	0	0	0	202.667	293.2	0	0	0	0	252								
293.05	0	0	0	0	0	237.336	293.1	0	0	0	0	0	172.001	293.1	0	0	0	0	0	222.574	293.1	0	0	0	0	0	228	292.95	0	0	0	0	0	181.333	293.15	0	0	0	0	253.334								
293	0	0	0	0	0	240.003	293.05	0	0	0	0	0	181.334	293.05	0	0	0	0	0	209.351	293.05	0	0	0	0	0	221.334	292.9	0	0	0	0	0	186.667	293.1	0	0	0	0	297.334								
292.95	0	0	0	0	0	242.671	293	0	0	0	0	0	184.001	293	0	0	0	0	0	209.465	293	0	0	0	0	0	253.334	292.85	0	0	0	0	0	202.667	293.05	0	0	0	0	269.334								
292.9	0	0	0	0	0	246.672	292.95	0	0	0	0	0	193.335	292.95	0	0	0	0	0	209.584	292.95	0	0	0	0	0	225.334	292.8	0	0	0	0	0	190.667	293	0	0	0	0	249.334								
292.85	0	0	0	0	0	266.673	292.9	0	0	0	0	0	178.669	292.9	0	0	0	0	0	235.042	292.9	0	0	0	0	0	218.667	292.75	0	0	0	0	0	176	292.95	0	0	0	0	217.334								
292.8	0	0	0	0	0	269.342	292.85	0	0	0	0	0	202.67	292.85	0	0	0	0	0	211.172	292.85	0	0	0	0	0	198.667	292.7	0	0	0	0	0	210.667	292.9	0	0	0	0	224.001								
292.75	0	0	0	0	0	238.678	292.8	0	0	0	0	0	176.004	292.8	0	0	0	0	0	215.307	292.8	0	0	0	0	0	200.001	292.65	0	0	0	0	0	226.667	292.85	0	0	0	0	250.668								
292.7	0	0	0	0	0	257.348	292.75	0	0	0	0	0	192.005	292.75	0	0	0	0	0	228.782	292.75	0	0	0	0	0	222.668	292.6	0	0	0	0	0	197.335	292.8	0	0	0	0	256.002								
292.65	0	0	0	0	0	257.353	292.7	0	0	0	0	0	201.34	292.7	0	0	0	0	0	208.929	292.7	0	0	0	0	0	201.335	292.55	0	0	0	0	0	210.668	292.75	0	0	0	0	238.669								
292.6	0	0	0	0	0	228.025	292.65	0	0	0	0	0	180.009	292.65	0	0	0	0	0	189.083	292.65	0	0	0	0	0	229.336	292.5	0	0	0	0	0	200.003	292.7	0	0	0	0	248.003								
292.55	0	0	0	0	0	229.366	292.6	0	0	0	0	0	174.679	292.6	0	0	0	0	0	203.91	292.6	0	0	0	0	0	201.337	292.45	0	0	0	0	0	194.67	292.65	0	0	0	0	228.004								
292.5	0	0	0	0	0	248.042	292.55	0	0	0	0	0	157.349	292.55	0	0	0	0	0	248.079	292.55	0	0	0	0	0	197.338	292.4	0	0	0	0	0	184.005	292.6	0	0	0	0	262.671								
292.45	0	0	0	0	0	245.387	292.5	0	0	0	0	0	166.687	292.5	0	0	0	0	0	224.254	292.5	0	0	0	0	0	204.007	292.35	0	0	0	0	0	224.008	292.55	0	0	0	0	266.672								
292.4	0	0	0	0	0	217.402	292.45	0	0	0	0	0	184.027	292.45	0	0	0	0	0	228.439	292.45	0	0	0	0	0	214.676	292.3	0	0	0	0	0	188.011	292.5	0	0	0	0	269.34								
292.35	0	0	0	0	0	226.753	292.4	0	0	0	0	0	176.034	292.4	0	0	0	0	0	232.632	292.4	0	0	0	0	0	209.346	292.25	0	0	0	0	0	216.016	292.45	0	0	0	0	276.009								
292.3	0	0	0	0	0	224.11	292.35	172.741	172.741	172.785	172.741	172.741	172.785	292.35	0	0	0	0	0	243.501	292.35	0	0	0	0	0	206.683	292.2	0	0	0	0	0	212.023	292.4	0	0	0	0	268.011								
292.25	0	0	0	0	0	230.806	292.3	172.74	172.74	172.796	172.74	172.74	172.796	292.3	0	0	0	0	0	211.714	292.3	0	0	0	0	0	197.355	292.15	0	0	0	0	0	196.032	292.35	0	0	0	0	249.347								
292.2	232.444	232.444	232.619	232.444	232.444	232.619	292.25	172.737	172.737	172.809	172.737	172.737	172.809	292.25	0	0	0	0	0	203.939	292.25	0	0	0	0	0	206.695	292.1	0	0	0	0	0	197.379	292.3	0	0	0	0	242.684								
292.15	232.438	232.438	232.658	232.438	232.438	232.658	292.2	172.735	172.735	172.827	172.735	172.735	172.827	292.2	0	0	0	0	0	240.176	292.2	0	0	0	0	0	196.038	292.05	0	0	0	0	0	184.064	292.25	0	0	0	0	245.355								
292.1	232.429	232.429	232.704	232.429	232.429	232.704	292.15	172.733	172.733	172.849	172.733	172.733	172.849	292.15	0	0	0	0	0	212.427	292.15	0	0	0	0	0	204.05	292	0	0	0	0	0	193.422	292.2	0	0	0	0	269.361								
292.05	232.421	232.421	232.764	232.421	232.421	232.764	292.1	172.73	172.73	172.878	172.73	172.73	172.878	292.1	0	0	0	0	0	226.026	292.1	201.333	201.398	201.333	201.333	201.333	201.398	291.95	0	0	0	0	0	184.122	292.15	0	0	0	0	237.367								
292	232.412	232.412	232.839	232.412	232.412	232.839	292.05	172.728	172.728	172.913	172.728	172.728	172.914	292.05	207.111	207.111	207.255	213.276	207.111	213.42	292.05	201.33	201.415	201.33	201.33	201.33	201.415	291.9	0	0	0	0	0	180.168	292.1	0	0	0	0	230.709								
291.95	232.403	232.403	232.933	232.403	232.403	232.933	292	172.726	172.726	172.959	172.726	172.726	172.959	292	205.938	205.938	206.122	212.366	205.938	212.549	292	201.326	201.436	201.326	201.326	201.326	201.436	291.85	0	0	0	0	0	196.229	292.05	0	0	0	0	260.052								
291.9	232.395	232.395	233.05	232.396	232.395	233.05	291.95	172.725	172.725	173.017	172.725	172.725	173.017	291.95	204.601	204.601	204.833	211.303	204.601	211.535	291.95	201.32	201.463	201.32	201.32	201.32	201.463	291.8	0	0	0	0	0	209.645	292	0	0	0	0	282.731								
291.85	232.387	232.387	233.194	232.387	232.387	233.194	291.9	172.721	172.721	173.086	172.722	172.721	173.086	291.9	197	197	197.292	203.989	197	204.281	291.9	201.315	201.498	201.315	201.315	201.315	201.498	291.75	0	0	0	0	0	203.088	291.95	0	0	0	0	270.745								
291.8	232.378	232.378	233.37	232.379	232.378	233.37	291.85	172.717	172.717	173.171	172.718	172.717	173.172	291.85	196.999	196.999	197.366	204.287	196.999	204.654	291.85	201.309	201.545	201.309	201.309	201.309	201.545	291.7	0	0	0	0	0	197.901	291.9	0	0	0	0	306.763								
291.75	232.372	232.372	233.587	232.372	232.372	233.587	291.8	172.713	172.713	173.276	172.714	172.713	173.277	291.8	196.996	196.996	197.456	204.597	196.996	205.057	291.8	201.303	201.604	201.303	201.303	201.303	201.604	291.65	0	0	0	0	0	182.093	291.85	0	0	0	0	272.119								
291.7	232.365	232.365	233.849	232.366	232.365	233.85	291.75	172.71	172.71	173.406	172.711	172.71	173.407	291.75	196.992	196.992	197.566	204.92	196.992	205.494	291.75	201.298	201.682	201.298	201.298	201.298	201.682	291.6	0	0	0	0	0	193.011	291.8	0	0	0	0	240.145								
291.65	232.36	232.36	234.167	232.36	232.36	234.167	291.7	172.706	172.706	173.564	172.707	172.706	173.565	291.7	196.986	196.986	197.701	205.255	196.986	205.97	291.7	201.292	201.78	201.292	201.292	201.292	201.78	291.55	194.074	195.412	194.074	194.074	194.074	195.412	291.75	0	0	0	0	249.51								
291.6	232.351	232.351	234.545	232.352	232.351	234.545	291.65	172.702	172.702	173.756	172.703	172.702	173.757	291.65	196.978	196.978	197.864	205.604	196.978	206.49	291.65	201.284	201.902	201.284	201.285	201.284	201.902	291.5	194.072	195.834	194.072	194.072	194.072	195.834	291.7	0	0	0	0	246.882								
291.55	232.342	232.342	234.996	232.343	232.342	234.997	291.6	172.698	172.698	173.988	172.7	172.698	173.99	291.6	196.969	196.969	198.064	205.969	196.969	207.064	291.6	201.276	202.055	201.276	201.277	201.276	202.055	291.45	194.069	196.376	194.069	194.069	194.069	196.377	291.65	0	0	0	0	253.594								
291.5	232.331	232.331	235.533	232.333	232.331	235.535	291.55	172.693	172.693	174.269	172.696	172.693	174.271	291.55	196.96	196.96	198.308	206.35	196.96	207.699	291.55	201.271	202.249	201.271	201.271	201.271	202.25	291.4	194.066	197.072	194.066	194.067	194.066	197.073	291.6	0	0	0	0	229.65								
291.45	232.32	232.32	236.17	232.322	232.32	236.172	291.5	172.689	172.689	174.605	172.693	172.689	174.609	291.5	196.949	196.949	198.605	206.748	196.949	208.404	291.5	201.267	202.492	201.267	201.268	201.267	202.493	291.35	194.063	197.958	194.063	194.063	194.063	197.959	291.55	0	0	0	0	228.382								
291.4	232.309	232.309	236.925	232.312	232.309	236.928	291.45	172.685	172.685	175.01	172.69	172.685	175.015	291.45	196.938	196.938	198.962	207.164	196.938	209.189	291.45	201.263	202.791	201.263	201.265	201.263	202.793	291.3	194.059	199.079	194.059	194.059	194.059	199.08	291.5	0	0	0	0	249.794								
291.35	232.296	232.296	237.812	232.301	232.296	237.816	291.4	172.683	172.683	175.493	172.69	172.683	175.499	291.4	196.924	196.924	199.392	207.598	196.924	210.067	291.4	201.259	203.159	201.259	201.261	201.259	203.161	291.25	194.053	200.489	194.053	194.054	194.053	200.491	291.45	0	0	0	0	220.554								
291.3	232.282	232.282	238.853	232.287	232.282	238.858	291.35	172.682	172.682	176.067	172.69	172.682	176.075	291.35	196.91	196.91	199.909	208.054	196.91	211.053	291.35	201.255	203.608	201.255	201.258	201.255	203.611	291.2	194.047	202.253	194.047	194.048	194.047	202.255	291.4	0	0	0	0	211.332								
291.25	232.265	232.265	240.069	232.273	232.265	240.077	291.3	172.68	172.68	176.745	172.691	172.68	176.756	291.3	196.897	196.897	200.529	208.533	196.897	212.165	291.3	201.251	204.155	201.251	201.255	201.251	204.159	291.15	194.038	204.445	194.038	194.04	194.038	204.448	291.35	0	0	0	0	255.464								
291.2	232.248	232.248	241.488	232.259	232.248	241.498	291.25	172.679	172.679	177.545	172.693	172.679	177.559	291.25	196.886	196.886	201.268	209.037	196.886	213.419	291.25	201.245	204.817	201.245	201.25	201.245	204.822	291.1	194.027	207.154	194.027	194.03	194.027	207.158	291.3	0	0	0	0	262.286								
291.15	232.234	232.234	243.138	232.248	232.234	243.152	291.2	172.677	172.677	178.483	172.696	172.677	178.502	291.2	196.876	196.876	202.146	209.566	196.876	214.837	291.2	201.239	205.616	201.239	201.245	201.239	205.622	291.05	194.014	210.482	194.014	194.019	194.014	210.487	291.25	0	0	0	0	247.803								
291.1	232.221	232.221	245.05	232.24	232.221	245.068	291.15	172.676	172.676	179.58	172.7	172.676	179.605	291.15	196.865	196.865	203.183	210.123	196.865	216.44	291.15	201.234	206.578	201.234	201.242	201.234	206.586	291	194	214.547	194	194.007	194	214.555	291.2	0	0	0	0	244.019								
291.05	232.209	232.209	247.254	232.234	232.209	247.278	291.1	172.673	172.673	180.858	172.705	172.673	180.889	291.1	196.854	196.854	204.399	210.706	196.854	218.251	291.1	201.228	207.729	201.228	201.239	201.228	207.74	290.95	193.982	219.48	193.982	193.992	193.982	219.49	291.15	246.667	248.272	246.667	246.667	248.272								
291	232.195	232.195	249.782	232.228	232.195	249.815	291.05	172.67	172.67	182.339	172.711	172.67	182.38	291.05	196.84	196.84	205.822	211.317	196.84	220.298	291.05	201.22	209.101	201.22	201.235	201.22	209.115	290.9	193.962	225.428	193.962	193.976	193.962	225.442	291.1	246.665	248.566	246.665	246.665	248.566								
290.95	232.179	232.179	252.673	232.223	232.179	252.716	291	172.666	172.666	184.052	172.718	172.666	184.104	291	196.826	196.826	207.48	211.957	196.826	222.612	291	201.212	210.731	201.212	201.231	201.212	210.75	290.85	193.939	232.556	193.939	193.958	193.939	232.576	291.05	246.661	248.908	246.661	246.661	248.908								
290.9	232.161	232.161	255.964	232.218	232.161	256.021	290.95	172.661	172.661	186.023	172.728	172.661	186.09	290.95	196.81	196.81	209.405	212.63	196.81	225.225	290.95	201.202	212.657	201.202	201.226	201.202	212.681	290.8	193.912	241.042	193.912	193.939	193.912	241.069	291	246.657	249.306	246.657	246.657	249.306								
290.85	232.143	232.143	259.701	232.218	232.143	259.776	290.9	172.654	172.654	188.285	172.74	172.654	188.37	290.9	196.792	196.792	211.629	213.337	196.792	228.174	290.9	201.189	214.924	201.189	201.22	201.189	214.955	290.75	193.882	251.078	193.882	193.919	193.882	251.115	290.95	246.652	249.769	246.652	246.652	249.769								
290.8	232.124	232.124	263.924	232.222	232.124	264.022	290.85	172.647	172.647	190.868	172.755	172.647	190.976	290.85	196.774	196.774	214.191	214.081	196.774	231.498	290.85	201.172	217.581	201.172	201.211	201.172	217.621	290.7	193.848	262.867	193.848	193.898	193.848	262.918	290.9	246.647	250.307	246.647	246.647	250.307								
290.75	232.105	232.105	268.679	232.231	232.105	268.806	290.8	172.637	172.637	193.807	172.775	172.637	193.944	290.8	196.753	196.753	217.126	214.862	196.753	235.235	290.8	201.156	220.688	201.156	201.207	201.156	220.739	290.65	193.808	276.618	193.808	193.877	193.808	276.687	290.85	246.641	250.927	246.641	246.641	250.927								
290.7	232.082	232.082	274.008	232.246	232.082	274.172	290.75	172.627	172.627	197.138	172.801	172.627	197.311	290.75	196.73	196.73	220.476	215.682	196.73	239.429	290.75	201.141	224.304	201.141	201.206	201.141	224.369	290.6	193.759	292.539	193.759	193.853	193.759	292.632	290.8	246.633	251.642	246.633	246.633	251.642								
290.65	232.055	232.055	279.954	232.267	232.055	280.166	290.7	172.615	172.615	200.898	172.833	172.615	201.115	290.7	196.704	196.704	224.284	216.545	196.704	244.125	290.7	201.121	228.488	201.121	201.203	201.12	228.571	290.55	193.703	310.838	193.703	193.829	193.703	310.964	290.75	246.624	252.465	246.624	246.624	252.465								
290.6	232.025	232.025	286.562	232.297	232.025	286.834	290.65	172.603	172.603	205.123	172.876	172.603	205.396	290.65	196.676	196.676	228.593	217.455	196.676	249.372	290.65	201.094	233.309	201.094	201.198	201.094	233.413	290.5	193.639	331.711	193.639	193.807	193.639	331.879	290.7	246.614	253.409	246.614	246.614	253.409								
290.55	231.992	231.992	293.874	232.34	231.992	294.221	290.6	172.589	172.589	209.852	172.931	172.589	210.194	290.6	196.648	196.648	233.448	218.416	196.648	255.216	290.6	201.063	238.842	201.064	201.195	201.063	238.974	290.45	193.563	355.326	193.563	193.788	193.563	355.55	290.65	246.603	254.491	246.603	246.603	254.491								
290.5	231.956	231.956	301.927	232.398	231.956	302.37	290.55	172.574	172.574	215.12	173	172.574	215.545	290.55	196.618	196.618	238.893	219.429	196.618	261.704	290.55	201.03	245.165	201.03	201.195	201.03	245.331	290.4	193.476	381.821	193.476	193.773	193.476	382.118	290.6	246.595	255.73	246.595	246.595	255.73								
290.45	231.916	231.916	310.756	232.477	231.916	311.317	290.5	172.556	172.556	220.959	173.084	172.556	221.487	290.5	196.584	196.584	244.968	220.497	196.584	268.881	290.5	200.993	252.359	200.993	201.2	200.993	252.566	290.35	193.373	411.283	193.373	193.765	193.373	411.675	290.55	246.587	257.143	246.587	246.587	257.143								
290.4	231.869	231.869	320.383	232.578	231.869	321.093	290.45	172.536	172.536	227.402	173.189	172.536	228.055	290.45	196.547	196.547	251.714	221.624	196.547	276.791	290.45	200.952	260.502	200.953	201.211	200.952	260.761	290.3	193.255	443.742	193.255	193.769	193.255	444.256	290.5	246.577	258.747	246.577	246.577	258.747								
290.35	231.814	231.814	330.83	232.707	231.814	331.722	290.4	172.513	172.513	234.476	173.318	172.513	235.281	290.4	196.506	196.506	259.167	222.815	196.506	285.475	290.4	200.904	269.674	200.905	201.227	200.904	269.997	290.25	193.119	479.149	193.119	193.79	193.119	479.82	290.45	246.565	260.563	246.565	246.565	260.563								
290.3	231.752	231.752	342.105	232.872	231.752	343.225	290.35	172.488	172.488	242.205	173.477	172.488	243.194	290.35	196.464	196.464	267.36	224.076	196.464	294.972	290.35	200.85	279.954	200.851	201.25	200.85	280.355	290.2	192.965	517.369	192.965	193.837	192.965	518.24	290.4	246.551	262.615	246.551	246.551	262.615								
290.25	231.682	231.682	354.209	233.08	231.682	355.607	290.3	172.46	172.46	250.603	173.671	172.46	251.814	290.3	196.416	196.416	276.315	225.408	196.416	305.307	290.3	200.786	291.415	200.787	201.281	200.786	291.911	290.15	192.796	558.159	192.796	193.922	192.796	559.286	290.35	246.538	264.93	246.538	246.538	264.93								
290.2	231.601	231.601	367.124	233.34	231.601	368.863	290.25	172.43	172.43	259.678	173.908	172.43	261.156	290.25	196.364	196.364	286.047	226.818	196.364	316.502	290.25	200.718	304.13	200.719	201.328	200.717	304.743	290.1	192.603	601.156	192.603	194.052	192.603	602.605	290.3	246.521	267.531	246.521	246.521	267.531								
290.15	231.509	231.509	380.822	233.663	231.509	382.976	290.2	172.397	172.397	269.429	174.194	172.397	271.227	290.2	196.307	196.307	296.565	228.313	196.307	328.571	290.2	200.643	318.16	200.645	201.395	200.643	318.913	290.05	192.388	645.877	192.388	194.241	192.388	647.73	290.25	246.502	270.447	246.502	246.502	270.447								
